Scattering angle:	105.0
Temperature (K):	297.0
Viscosity (mPas):	1.100
Refractive index:	1.330
Wavelength (nm):	642.0

Lag time (s)         g2-1
2.200000E-06	7.330000E-01		
2.400000E-06	7.310000E-01		
2.600000E-06	7.270000E-01		
2.800000E-06	7.250000E-01		
3.000000E-06	7.210000E-01		
3.200000E-06	7.260000E-01		
3.400000E-06	7.220000E-01		
3.800000E-06	7.170000E-01		
4.200000E-06	7.160000E-01		
4.600000E-06	7.090000E-01		
5.000000E-06	7.080000E-01		
5.400000E-06	7.070000E-01		
5.800000E-06	7.000000E-01		
6.200000E-06	6.990000E-01		
6.600000E-06	6.960000E-01		
7.400000E-06	6.870000E-01		
8.200000E-06	6.820000E-01		
9.000000E-06	6.750000E-01		
9.800000E-06	6.670000E-01		
1.060000E-05	6.610000E-01		
1.140000E-05	6.570000E-01		
1.220000E-05	6.500000E-01		
1.300000E-05	6.430000E-01		
1.460000E-05	6.310000E-01		
1.620000E-05	6.190000E-01		
1.780000E-05	6.080000E-01		
1.940000E-05	5.960000E-01		
2.100000E-05	5.860000E-01		
2.260000E-05	5.740000E-01		
2.420000E-05	5.640000E-01		
2.580000E-05	5.520000E-01		
2.900000E-05	5.330000E-01		
3.220000E-05	5.140000E-01		
3.540000E-05	4.930000E-01		
3.860000E-05	4.750000E-01		
4.180000E-05	4.580000E-01		
4.500000E-05	4.410000E-01		
4.820000E-05	4.250000E-01		
5.140000E-05	4.090000E-01		
5.780000E-05	3.800000E-01		
6.420000E-05	3.540000E-01		
7.060000E-05	3.270000E-01		
7.700000E-05	3.040000E-01		
8.340000E-05	2.820000E-01		
8.980000E-05	2.630000E-01		
9.620000E-05	2.450000E-01		
1.030000E-04	2.280000E-01		
1.150000E-04	1.970000E-01		
1.280000E-04	1.720000E-01		
1.410000E-04	1.500000E-01		
1.540000E-04	1.310000E-01		
1.670000E-04	1.150000E-01		
1.790000E-04	1.010000E-01		
1.920000E-04	8.880000E-02		
2.050000E-04	7.900000E-02		
2.310000E-04	6.220000E-02		
2.560000E-04	5.020000E-02		
2.820000E-04	4.030000E-02		
3.070000E-04	3.270000E-02		
3.330000E-04	2.700000E-02		
3.590000E-04	2.270000E-02		
3.840000E-04	1.900000E-02		
4.100000E-04	1.650000E-02		
4.610000E-04	1.340000E-02		
5.120000E-04	1.130000E-02		
5.630000E-04	1.060000E-02		
6.150000E-04	1.030000E-02		
6.660000E-04	9.410000E-03		
7.170000E-04	8.610000E-03		
7.680000E-04	7.790000E-03		
8.190000E-04	7.210000E-03		
9.220000E-04	6.890000E-03		
1.020000E-03	6.400000E-03		
1.130000E-03	5.660000E-03		
1.230000E-03	5.730000E-03		
1.330000E-03	6.130000E-03		
1.430000E-03	6.190000E-03		
1.540000E-03	6.620000E-03		
1.640000E-03	6.530000E-03		
1.840000E-03	6.070000E-03		
2.050000E-03	5.840000E-03		
2.250000E-03	6.790000E-03		
2.460000E-03	7.010000E-03		
2.660000E-03	6.740000E-03		
2.870000E-03	5.580000E-03		
3.070000E-03	5.170000E-03		
3.280000E-03	5.870000E-03		
3.690000E-03	5.680000E-03		
4.100000E-03	6.060000E-03		
4.510000E-03	5.760000E-03		
4.920000E-03	5.510000E-03		
5.330000E-03	6.780000E-03		
5.730000E-03	5.660000E-03		
6.140000E-03	4.970000E-03		
6.550000E-03	5.230000E-03		
7.370000E-03	6.420000E-03		
8.190000E-03	5.880000E-03		
9.010000E-03	5.810000E-03		
9.830000E-03	6.330000E-03		
1.060000E-02	6.390000E-03		
1.150000E-02	5.530000E-03		
1.230000E-02	5.470000E-03		
1.310000E-02	6.150000E-03		
1.470000E-02	5.850000E-03		
1.640000E-02	5.860000E-03		
1.800000E-02	6.510000E-03		
1.970000E-02	5.810000E-03		
2.130000E-02	5.970000E-03		
2.290000E-02	5.520000E-03		
2.460000E-02	5.740000E-03		
2.620000E-02	5.840000E-03		
2.950000E-02	5.580000E-03		
3.280000E-02	5.890000E-03		
3.600000E-02	5.850000E-03		
3.930000E-02	5.800000E-03		
4.260000E-02	5.890000E-03		
4.590000E-02	6.140000E-03		
4.920000E-02	6.070000E-03		
5.240000E-02	5.840000E-03		
5.900000E-02	5.910000E-03		
6.550000E-02	5.860000E-03		
7.210000E-02	5.740000E-03		
7.860000E-02	5.830000E-03		
8.520000E-02	5.640000E-03		
9.180000E-02	6.060000E-03		
9.830000E-02	5.890000E-03		
1.050000E-01	5.950000E-03		
1.180000E-01	5.770000E-03		
1.310000E-01	5.990000E-03		
1.440000E-01	5.660000E-03		
1.570000E-01	5.580000E-03		
1.700000E-01	5.740000E-03		
1.840000E-01	5.400000E-03		
1.970000E-01	5.430000E-03		
2.100000E-01	5.380000E-03		
2.360000E-01	5.480000E-03		
2.620000E-01	4.970000E-03		
2.880000E-01	4.910000E-03		
3.150000E-01	4.760000E-03		
3.410000E-01	4.630000E-03		
3.670000E-01	4.430000E-03		
3.930000E-01	4.240000E-03		
4.190000E-01	4.160000E-03		
4.720000E-01	3.710000E-03		
5.240000E-01	3.290000E-03		
5.770000E-01	3.140000E-03		
6.290000E-01	2.780000E-03		
6.820000E-01	2.620000E-03		
7.340000E-01	2.200000E-03		
7.860000E-01	2.100000E-03		
8.390000E-01	0.000000E+00		
9.440000E-01	0.000000E+00		
1.050000E+00	0.000000E+00		
1.150000E+00	0.000000E+00		
1.260000E+00	0.000000E+00		
1.360000E+00	0.000000E+00		
1.470000E+00	0.000000E+00		
1.570000E+00	0.000000E+00		
1.680000E+00	0.000000E+00		
1.890000E+00	1.570000E-03		
2.100000E+00	1.710000E-03		
2.310000E+00	2.120000E-03		
2.520000E+00	2.510000E-03		
2.730000E+00	2.770000E-03		
2.940000E+00	3.020000E-03		
3.150000E+00	3.130000E-03		
3.360000E+00	3.030000E-03		
3.770000E+00	2.540000E-03		
4.190000E+00	1.770000E-03		
4.610000E+00	9.170000E-04		
5.030000E+00	4.820000E-04		
5.450000E+00	2.400000E-04		
5.870000E+00	3.130000E-04		
6.290000E+00	5.470000E-04		
6.710000E+00	6.600000E-04		
7.550000E+00	4.800000E-04		
8.390000E+00	4.140000E-06		
9.230000E+00	-1.750000E-04		
1.010000E+01	1.110000E-04		
1.090000E+01	2.450000E-04		
1.170000E+01	2.420000E-04		
1.260000E+01	1.690000E-04		
1.340000E+01	2.790000E-04		
1.510000E+01	1.910000E-04		
1.680000E+01	-2.780000E-05		
1.850000E+01	9.600000E-05		
2.010000E+01	6.150000E-04		
2.180000E+01	7.880000E-04		
2.350000E+01	8.310000E-04		
2.520000E+01	7.260000E-04		
2.680000E+01	1.560000E-03		
3.020000E+01	1.660000E-03		
3.360000E+01	1.310000E-03		
3.690000E+01	1.170000E-03		
4.030000E+01	1.450000E-03		
4.360000E+01	1.740000E-03		
4.700000E+01	1.850000E-03		
5.030000E+01	2.570000E-03		
5.370000E+01	3.630000E-03		
6.040000E+01	3.990000E-03		
6.710000E+01	4.520000E-03		
7.380000E+01	5.200000E-03		
8.050000E+01	6.570000E-03		
8.720000E+01	7.720000E-03		
9.400000E+01	7.710000E-03		
1.010000E+02	1.040000E-02		
1.070000E+02	1.270000E-02		
1.210000E+02	-1.420000E-02		
1.340000E+02	-1.250000E-02		
1.480000E+02	-1.410000E-02		
1.610000E+02	-1.660000E-02		
1.740000E+02	-1.550000E-02		
1.880000E+02	-1.160000E-02		
