DataFileTitle 	Polystyrene of Markus Strobl,  Full Sine, ++ only 
Sample 	Polystyrene 2 um in 53% H2O, 47% D2O 
Settings 	D1=D2=20x8 mm,Ds = 16x10 mm (WxH), GF1 =scanning, GF2 = 2.5 A. 2 um polystyrene in 53% H2O, 47% D2O; 8.55% contrast 
Operator 	CPD 
Date 	ma 7 jul 2014 18:54:43 
ScanType 	sine one element scan 
Thickness [mm] 	2 
Q_zmax [\AA^-1] 	0.05 
Q_ymax [\AA^-1] 	0.05 
  
spin echo length [nm] 	 error SEL 	 wavelength [nm] 	 error wavelength 	 polarisation 	 error pol 
49.778	2.4889	0.211	0.01055	0.99782	0.0044367
63.041	3.152	0.211	0.01055	1.0026	0.0047862
76.487	3.8244	0.211	0.01055	0.99601	0.0060598
89.847	4.4924	0.211	0.01055	0.99175	0.0058257
103.41	5.1705	0.211	0.01055	0.99543	0.0060966
116.95	5.8475	0.211	0.01055	0.99512	0.0048106
130.61	6.5303	0.211	0.01055	0.9975	0.0062594
144.37	7.2184	0.211	0.01055	0.99473	0.005293
158.2	7.9102	0.211	0.01055	0.9927	0.0053389
172.12	8.6062	0.211	0.01055	0.99453	0.0064548
186.17	9.3087	0.211	0.01055	0.98641	0.0073259
200.28	10.014	0.211	0.01055	0.98879	0.0078682
214.46	10.723	0.211	0.01055	0.9895	0.0068058
228.73	11.436	0.211	0.01055	0.99204	0.0082509
243.12	12.156	0.211	0.01055	0.99406	0.0051381
257.55	12.878	0.211	0.01055	0.97965	0.0055447
272.22	13.611	0.211	0.01055	0.97982	0.0065843
286.9	14.345	0.211	0.01055	0.97793	0.0071814
301.73	15.087	0.211	0.01055	0.97835	0.0066197
316.75	15.838	0.211	0.01055	0.98125	0.0069484
331.82	16.591	0.211	0.01055	0.97828	0.0068737
347.16	17.358	0.211	0.01055	0.97682	0.006744
362.45	18.122	0.211	0.01055	0.98155	0.0059865
378.09	18.904	0.211	0.01055	0.96446	0.0066788
393.74	19.687	0.211	0.01055	0.97276	0.0073781
409.61	20.481	0.211	0.01055	0.97101	0.0071053
425.55	21.278	0.211	0.01055	0.97501	0.0068244
441.91	22.096	0.211	0.01055	0.96958	0.0072272
458.12	22.906	0.211	0.01055	0.95991	0.0064035
474.77	23.739	0.211	0.01055	0.96219	0.0059227
491.52	24.576	0.211	0.01055	0.96016	0.0058606
508.51	25.426	0.211	0.01055	0.9509	0.0049836
525.68	26.284	0.211	0.01055	0.95558	0.0055218
543.08	27.154	0.211	0.01055	0.95079	0.0058258
560.74	28.037	0.211	0.01055	0.9514	0.0043921
578.69	28.935	0.211	0.01055	0.94562	0.0046962
596.75	29.838	0.211	0.01055	0.94588	0.0047341
615.17	30.758	0.211	0.01055	0.93958	0.0045821
633.77	31.688	0.211	0.01055	0.93731	0.0043108
652.82	32.641	0.211	0.01055	0.93664	0.0052044
672.04	33.602	0.211	0.01055	0.93209	0.0035563
691.57	34.578	0.211	0.01055	0.93385	0.0046002
711.48	35.574	0.211	0.01055	0.93028	0.0051136
731.67	36.583	0.211	0.01055	0.93012	0.0035279
752.17	37.608	0.211	0.01055	0.92594	0.0039458
773.1	38.655	0.211	0.01055	0.92352	0.0027613
794.42	39.721	0.211	0.01055	0.91823	0.0034587
816.14	40.807	0.211	0.01055	0.90862	0.0034262
838.19	41.91	0.211	0.01055	0.91909	0.003498
860.69	43.034	0.211	0.01055	0.91013	0.0030537
883.74	44.187	0.211	0.01055	0.90449	0.0035391
907.04	45.352	0.211	0.01055	0.90057	0.0029672
930.95	46.547	0.211	0.01055	0.90316	0.0031245
955.38	47.769	0.211	0.01055	0.89492	0.0030981
980.25	49.013	0.211	0.01055	0.89636	0.0036625
1005.7	50.284	0.211	0.01055	0.88808	0.0022652
1031.7	51.586	0.211	0.01055	0.88665	0.0044622
1058.3	52.914	0.211	0.01055	0.88205	0.0030275
1085.5	54.276	0.211	0.01055	0.88257	0.0028637
1113.4	55.669	0.211	0.01055	0.87629	0.0030312
1141.9	57.093	0.211	0.01055	0.87732	0.0026539
1171	58.55	0.211	0.01055	0.87361	0.0034591
1201	60.052	0.211	0.01055	0.86595	0.0028129
1231.6	61.582	0.211	0.01055	0.86804	0.0043311
1263	63.151	0.211	0.01055	0.86676	0.0028806
1295.2	64.762	0.211	0.01055	0.85655	0.0028657
1328.4	66.419	0.211	0.01055	0.85794	0.0034773
1362.3	68.113	0.211	0.01055	0.85521	0.0032798
1397.1	69.854	0.211	0.01055	0.84974	0.0044537
1432.9	71.644	0.211	0.01055	0.84149	0.0032738
1469.7	73.487	0.211	0.01055	0.84801	0.0037874
1507.5	75.376	0.211	0.01055	0.84334	0.003206
1546.4	77.318	0.211	0.01055	0.83749	0.0040707
1586.4	79.322	0.211	0.01055	0.83921	0.0049938
1627.6	81.381	0.211	0.01055	0.83434	0.0057337
1669.9	83.497	0.211	0.01055	0.82878	0.0062417
1713.6	85.678	0.211	0.01055	0.82309	0.0080179
1758.5	87.927	0.211	0.01055	0.82433	0.0074191
1804.8	90.239	0.211	0.01055	0.82023	0.0076431
1852.5	92.627	0.211	0.01055	0.82756	0.0063064
1901.7	95.087	0.211	0.01055	0.82584	0.0052944
1952.4	97.622	0.211	0.01055	0.82799	0.0050662
2004.8	100.24	0.211	0.01055	0.82345	0.0043127
2058.8	102.94	0.211	0.01055	0.82296	0.0038
2114.5	105.72	0.211	0.01055	0.81987	0.0034072
2172	108.6	0.211	0.01055	0.82021	0.0036752
2231.4	111.57	0.211	0.01055	0.82765	0.0028851
2292.8	114.64	0.211	0.01055	0.82664	0.0038942
2356.2	117.81	0.211	0.01055	0.82702	0.0047371
2421.8	121.09	0.211	0.01055	0.81593	0.0043772
2489.6	124.48	0.211	0.01055	0.8251	0.0028026
2559.5	127.98	0.211	0.01055	0.8292	0.0024574
2631.9	131.59	0.211	0.01055	0.82626	0.0036198
2706.8	135.34	0.211	0.01055	0.8208	0.0032314
2784.3	139.22	0.211	0.01055	0.81959	0.0042731
2864.5	143.23	0.211	0.01055	0.82653	0.002699
2947.5	147.38	0.211	0.01055	0.82401	0.0036726
3033.5	151.67	0.211	0.01055	0.82361	0.0048224
3122.4	156.12	0.211	0.01055	0.82358	0.0041221
3214.5	160.73	0.211	0.01055	0.82187	0.0028807
3310.1	165.5	0.211	0.01055	0.82644	0.003516
3409	170.45	0.211	0.01055	0.82355	0.0021166
3511.4	175.57	0.211	0.01055	0.82513	0.0033911
3617.6	180.88	0.211	0.01055	0.82802	0.0015342
3727.6	186.38	0.211	0.01055	0.82663	0.0029222
3841.7	192.08	0.211	0.01055	0.82026	0.0020755
3960	198	0.211	0.01055	0.83079	0.0026394
4082.7	204.13	0.211	0.01055	0.82665	0.0027466
4209.9	210.5	0.211	0.01055	0.82774	0.0025199
4341.9	217.09	0.211	0.01055	0.83489	0.0030619
4478.7	223.94	0.211	0.01055	0.81987	0.0020988
4620.8	231.04	0.211	0.01055	0.8253	0.0023899
4768.2	238.41	0.211	0.01055	0.82653	0.0022851
4921.1	246.06	0.211	0.01055	0.82442	0.003383
5079.8	253.99	0.211	0.01055	0.82827	0.0015979
5244.7	262.23	0.211	0.01055	0.82494	0.0031129
5415.7	270.79	0.211	0.01055	0.82183	0.0030149
5593.3	279.67	0.211	0.01055	0.83217	0.0046976
5777.8	288.89	0.211	0.01055	0.82227	0.005574
5969.3	298.46	0.211	0.01055	0.82338	0.0025569
