FileFormatVersion       1.0
DataFileTitle           Polystyrene of Markus Strobl,  Full Sine, ++ only
Sample                  Polystyrene 2 um in 53% H2O, 47% D2O
Settings                D1=D2=20x8 mm,Ds = 16x10 mm (WxH), GF1 =scanning, GF2 = 2.5 A. 2 um polystyrene in 53% H2O, 47% D2O; 8.55% contrast
Operator                CPD
Date                    do 10 jul 2014 16:37:30
ScanType                sine one element scan
Thickness               2.00E-01
Thickness_unit          cm
Theta_zmax              0.0168
Theta_zmax_unit         radians
Theta_ymax              0.0168
Theta_ymax_unit         radians
Orientation             Z
SpinEchoLength_unit     A
Depolarisation_unit     A-2 cm-1
Wavelength_unit         A

BEGIN_DATA
SpinEchoLength Depolarisation Depolarisation_error SpinEchoLength_error Wavelength Wavelength_error Polarisation  Polarisation_error
391.56 0.0041929 0.0036894 19.578 2.11 0.1055 1.0037 0.0032974
1564 -0.0046571 0.0038185 78.2 2.11 0.1055 0.99586 0.003386
2735.6 -0.017007 0.0038132 136.78 2.11 0.1055 0.98497 0.0033444
3907.9 -0.033462 0.0035068 195.39 2.11 0.1055 0.97064 0.0030309
5080.2 -0.047483 0.0038208 254.01 2.11 0.1055 0.9586 0.0032613
6251.8 -0.070375 0.00376 312.59 2.11 0.1055 0.93926 0.0031446
7423.2 -0.092217 0.0037927 371.16 2.11 0.1055 0.92117 0.0031108
8595.5 -0.10238 0.004006 429.77 2.11 0.1055 0.91287 0.0032562
9767.7 -0.12672 0.0038534 488.39 2.11 0.1055 0.8933 0.0030651
10940 -0.1374 0.004243 546.98 2.11 0.1055 0.88484 0.003343
12112 -0.16072 0.0045837 605.58 2.11 0.1055 0.86666 0.0035372
13284 -0.16623 0.0045613 664.2 2.11 0.1055 0.86242 0.0035027
14456 -0.18468 0.0044918 722.79 2.11 0.1055 0.84837 0.0033931
15628 -0.19143 0.0048967 781.38 2.11 0.1055 0.84328 0.0036768
16800 -0.20029 0.0045421 840.02 2.11 0.1055 0.83666 0.0033837
17971 -0.19798 0.0046642 898.56 2.11 0.1055 0.83838 0.0034819
19143 -0.21442 0.0047052 957.17 2.11 0.1055 0.82619 0.0034614
20316 -0.20885 0.0044931 1015.8 2.11 0.1055 0.8303 0.0033218
21488 -0.21393 0.0049186 1074.4 2.11 0.1055 0.82655 0.00362
22660 -0.20685 0.004423 1133 2.11 0.1055 0.83179 0.0032758
23832 -0.20802 0.0046979 1191.6 2.11 0.1055 0.83092 0.0034758
25003 -0.19848 0.0045953 1250.2 2.11 0.1055 0.838 0.0034289
26175 -0.21117 0.0044567 1308.8 2.11 0.1055 0.82859 0.0032881
27347 -0.21283 0.004137 1367.4 2.11 0.1055 0.82736 0.0030477
28520 -0.2042 0.0044587 1426 2.11 0.1055 0.83375 0.0033101
29692 -0.2112 0.0042852 1484.6 2.11 0.1055 0.82857 0.0031615
30864 -0.20319 0.0043483 1543.2 2.11 0.1055 0.8345 0.003231
32036 -0.20752 0.0044297 1601.8 2.11 0.1055 0.83129 0.0032788
33207 -0.20654 0.0043188 1660.4 2.11 0.1055 0.83201 0.0031995
34380 -0.20126 0.0046375 1719 2.11 0.1055 0.83593 0.0034518
35551 -0.20924 0.0042871 1777.6 2.11 0.1055 0.83001 0.0031684
36724 -0.21323 0.0045471 1836.2 2.11 0.1055 0.82707 0.0033487
37895 -0.21324 0.0045354 1894.7 2.11 0.1055 0.82706 0.00334
39067 -0.19905 0.0044141 1953.4 2.11 0.1055 0.83758 0.003292
40239 -0.1991 0.0047441 2012 2.11 0.1055 0.83754 0.003538
41411 -0.20359 0.0050136 2070.5 2.11 0.1055 0.8342 0.003724
42583 -0.21032 0.0049474 2129.1 2.11 0.1055 0.82922 0.0036529
43755 -0.20689 0.0048203 2187.8 2.11 0.1055 0.83176 0.00357
44927 -0.21075 0.0052337 2246.4 2.11 0.1055 0.8289 0.0038628
46099 -0.19956 0.0047827 2304.9 2.11 0.1055 0.8372 0.0035653
49615	-0.19956	0.0047827	2304.9	2.11	0.1055	0.8372	0.0035653
53131	-0.19956	0.0047827	2304.9	2.11	0.1055	0.8372	0.0035653
56647	-0.19956	0.0047827	2304.9	2.11	0.1055	0.8372	0.0035653
60163	-0.19956	0.0047827	2304.9	2.11	0.1055	0.8372	0.0035653
63679	-0.19956	0.0047827	2304.9	2.11	0.1055	0.8372	0.0035653
67195	-0.19956	0.0047827	2304.9	2.11	0.1055	0.8372	0.0035653
70711	-0.19956	0.0047827	2304.9	2.11	0.1055	0.8372	0.0035653
74227	-0.19956	0.0047827	2304.9	2.11	0.1055	0.8372	0.0035653
77743	-0.19956	0.0047827	2304.9	2.11	0.1055	0.8372	0.0035653
81259	-0.19956	0.0047827	2304.9	2.11	0.1055	0.8372	0.0035653
84775	-0.19956	0.0047827	2304.9	2.11	0.1055	0.8372	0.0035653
88291	-0.19956	0.0047827	2304.9	2.11	0.1055	0.8372	0.0035653
91807	-0.19956	0.0047827	2304.9	2.11	0.1055	0.8372	0.0035653
95323	-0.19956	0.0047827	2304.9	2.11	0.1055	0.8372	0.0035653
98839	-0.19956	0.0047827	2304.9	2.11	0.1055	0.8372	0.0035653
102355	-0.19956	0.0047827	2304.9	2.11	0.1055	0.8372	0.0035653
105871	-0.19956	0.0047827	2304.9	2.11	0.1055	0.8372	0.0035653
109387	-0.19956	0.0047827	2304.9	2.11	0.1055	0.8372	0.0035653
112903	-0.19956	0.0047827	2304.9	2.11	0.1055	0.8372	0.0035653
116419	-0.19956	0.0047827	2304.9	2.11	0.1055	0.8372	0.0035653
119935	-0.19956	0.0047827	2304.9	2.11	0.1055	0.8372	0.0035653
123451	-0.19956	0.0047827	2304.9	2.11	0.1055	0.8372	0.0035653
126967	-0.19956	0.0047827	2304.9	2.11	0.1055	0.8372	0.0035653
130483	-0.19956	0.0047827	2304.9	2.11	0.1055	0.8372	0.0035653
133999	-0.19956	0.0047827	2304.9	2.11	0.1055	0.8372	0.0035653
137515	-0.19956	0.0047827	2304.9	2.11	0.1055	0.8372	0.0035653
141031	-0.19956	0.0047827	2304.9	2.11	0.1055	0.8372	0.0035653
144547	-0.19956	0.0047827	2304.9	2.11	0.1055	0.8372	0.0035653
148063	-0.19956	0.0047827	2304.9	2.11	0.1055	0.8372	0.0035653
151579	-0.19956	0.0047827	2304.9	2.11	0.1055	0.8372	0.0035653
155095	-0.19956	0.0047827	2304.9	2.11	0.1055	0.8372	0.0035653
158611	-0.19956	0.0047827	2304.9	2.11	0.1055	0.8372	0.0035653
162127	-0.19956	0.0047827	2304.9	2.11	0.1055	0.8372	0.0035653
165643	-0.19956	0.0047827	2304.9	2.11	0.1055	0.8372	0.0035653
169159	-0.19956	0.0047827	2304.9	2.11	0.1055	0.8372	0.0035653
172675	-0.19956	0.0047827	2304.9	2.11	0.1055	0.8372	0.0035653
176191	-0.19956	0.0047827	2304.9	2.11	0.1055	0.8372	0.0035653
179707	-0.19956	0.0047827	2304.9	2.11	0.1055	0.8372	0.0035653
183223	-0.19956	0.0047827	2304.9	2.11	0.1055	0.8372	0.0035653
186739	-0.19956	0.0047827	2304.9	2.11	0.1055	0.8372	0.0035653
190255	-0.19956	0.0047827	2304.9	2.11	0.1055	0.8372	0.0035653
193771	-0.19956	0.0047827	2304.9	2.11	0.1055	0.8372	0.0035653
197287	-0.19956	0.0047827	2304.9	2.11	0.1055	0.8372	0.0035653
200803	-0.19956	0.0047827	2304.9	2.11	0.1055	0.8372	0.0035653
